  Wavelength(um)          Flux(Jy)         Error(Jy)
         54.8075           58.0719          0.926830
         54.8270           58.5947           1.07379
         54.8465           58.3850           1.16958
         54.8660           57.0513          0.982716
         54.8855           59.6966           1.05706
         54.9050           58.1666           1.45252
         54.9245           59.8375          0.917434
         54.9440           58.6062           1.36537
         54.9635           59.1700           1.62525
         54.9830           58.0313           1.16781
         55.0025           59.5520           1.24531
         55.0220           58.7152           1.55409
         55.0415           61.0969           1.27271
         55.0610           58.7560           1.70112
         55.0805           59.3221           1.45946
         55.1000           61.2860           1.15300
         55.1196           60.4751           1.60706
         55.1391           59.7056           1.38094
         55.1586           59.6014           1.45290
         55.1781           59.2630           1.23466
         55.1976           58.8180           1.95460
         55.2171           60.9882           1.50760
         55.2366           59.9663           1.44881
         55.2561           60.3267           1.41782
         55.2756           62.1508           1.94711
         55.2951           59.8794           1.33096
         55.3147           59.5871           1.84630
         55.3342           60.1162           2.00730
         55.3537           59.6953           1.27984
         55.3732           61.2264           1.40179
         55.3927           63.5620           1.43170
         55.4122           59.8775           1.94807
         55.4317           61.9517           2.01151
         55.4513           60.6165           1.48242
         55.4708           61.2002           1.59936
         55.4903           60.2328           1.76514
         55.5098           61.6117          0.970555
         55.5293           61.8001           2.64769
         55.5489           61.6998           1.70892
         55.5684           61.4719           1.52743
         55.5879           61.8160           1.94345
         55.6074           63.0395           1.64844
         55.6269           63.0817           1.51756
         55.6465           62.1347           2.64804
         55.6660           62.5977           1.73836
         55.6855           62.7170           1.18941
         55.7050           62.3570           2.36771
         55.7246           64.2036           1.26828
         55.7441           64.8515           1.33555
         55.7636           62.5676           2.45351
         55.7832           63.7406           1.97322
         55.8027           63.5720           1.27789
         55.8222           63.1181           2.38216
         55.8417           61.2900           1.78172
         55.8613           64.2456           1.54935
         55.8808           63.5458           2.58030
         55.9003           64.9093           1.26286
         55.9199           64.3933           2.28898
         55.9394           64.5372           2.27413
         55.9589           66.0063           1.88161
         55.9785           63.2235           1.89114
         55.9980           63.9076           1.95765
         56.0175           65.0644           1.82444
         56.0371           64.1989           2.01927
         56.0566           65.0270           2.15782
         56.0761           65.4876           1.83780
         56.0957           65.0945           2.40838
         56.1152           64.8594           2.07313
         56.1348           66.4921           1.68555
         56.1543           65.1443           1.64583
         56.1738           66.6320           1.69323
         56.1934           65.6219           2.05134
         56.2129           65.1744           1.57157
         56.2325           64.7006           1.91607
         56.2520           67.4517           1.85325
         56.2715           67.3607           1.49261
         56.2911           67.5597           2.32708
         56.3106           69.3317           1.51283
         56.3302           66.3920           2.05693
         56.3497           67.3299           2.42097
         56.3693           66.0084           1.59194
         56.3888           65.1361           2.08192
         56.4084           67.6154           1.96450
         56.4279           67.0414           1.80916
         56.4475           67.3740           2.05359
         56.4670           67.6123           1.98499
         56.4866           67.6073           1.79436
         56.5061           69.2172           1.53908
         56.5257           69.5214           1.52280
         56.5452           67.7045           1.58953
         56.5648           70.9157           1.63167
         56.5843           67.8846           2.01803
         56.6039           68.3247           1.43060
         56.6234           69.9953           1.14022
         56.6430           68.5431           2.13787
         56.6625           69.9272           1.56649
         56.6821           69.5135           1.69861
         56.7016           69.5772           1.98710
         56.7212           70.4147           1.21718
         56.7408           70.3608           1.72356
         56.7603           68.7784           1.76156
         56.7799           68.5081           1.37406
         56.7994           71.6391           1.21005
         56.8190           69.7312           1.83830
         56.8386           68.7798           1.16555
         56.8581           70.6552           1.37905
         56.8777           69.5370           1.52809
         56.8972           69.8361           1.26180
         56.9168           71.2026           1.78383
         56.9364           67.9570           1.60664
         56.9559           67.6181           1.32284
         56.9755           71.6523           1.31138
         56.9951           68.8236           1.50673
         57.0146           68.6465           1.25620
         57.0342           71.3700           1.47138
         57.0538           68.5563           1.27708
         57.0733           68.8904           1.25518
         57.0929           72.1919           1.56974
         57.1125           71.2198           1.45078
         57.1320           68.5815           1.30540
         57.1516           72.3770           1.42424
         57.1712           69.7334           1.12572
         57.1907           70.0062           1.02237
         57.2103           69.6718           1.16832
         57.2299           70.4425           1.35778
         57.2494           69.0103           1.31465
         57.2690           69.5300           1.69483
         57.2886           70.9431           1.21448
         57.3082           67.9097           1.11348
         57.3277           71.6973           1.19940
         57.3473           69.2799           1.45333
         57.3669           69.8823           1.19319
         57.3865           71.3211           1.72865
         57.4060           68.8969           1.49460
         57.4256           69.7017           1.49600
         57.4452           69.7432           1.33613
         57.4648           70.5067           1.39932
         57.4843           70.9746           1.34548
         57.5039           71.2421           1.69164
         57.5235           70.5600           1.64842
         57.5431           70.1909           1.63845
         57.5627           71.3796           1.60719
         57.5822           70.1093           1.64435
         57.6018           70.4402           1.83158
         57.6214           71.0997           1.77373
         57.6410           70.7648           2.07309
         57.6606           71.6013           1.88028
         57.6802           71.9449           1.64542
         57.6997           71.1739           2.04662
         57.7193           73.9369           2.21146
         57.7389           73.1856           1.94314
         57.7585           72.3241           1.93755
         57.7781           72.9858           2.01097
         57.7977           72.2072           2.59777
         57.8173           72.7243           2.13712
         57.8368           72.0825           2.13720
         57.8564           73.6017           2.33446
         57.8760           72.7342           2.15346
         57.8956           74.7574           2.05878
         57.9152           73.8707           2.33844
         57.9348           73.9954           2.11795
         57.9544           75.0947           1.84342
         57.9740           73.9130           2.89659
         57.9936           74.8983           2.13174
         58.0132           74.8687           2.06885
         58.0328           76.0905           2.82314
         58.0523           75.0430           2.23040
         58.0719           75.1849           2.39632
         58.0915           76.4926           2.45909
         58.1111           76.5904           2.47517
         58.1307           75.7599           2.16894
         58.1503           76.4845           1.83412
         58.1699           76.8617           2.87757
         58.1895           76.1652           2.61412
         58.2091           75.7409           2.21225
         58.2287           74.9866           2.18876
         58.2483           75.8894           2.62238
         58.2679           76.0356           2.24811
         58.2875           76.2676           3.27671
         58.3071           75.3818           2.77744
         58.3267           76.8795           2.52025
         58.3463           76.5145           2.65576
         58.3659           76.2865           2.01476
         58.3855           77.3708           2.09495
         58.4051           77.4283           3.58202
         58.4247           75.4557           3.63812
         58.4443           75.9902           2.00510
         58.4639           76.1189           3.37596
         58.4835           76.7976           2.27277
         58.5031           76.5073           2.34317
         58.5227           78.0236           3.51359
         58.5423           78.5570           2.66585
         58.5620           79.8293           2.18256
         58.5816           76.4000           3.51431
         58.6012           77.1749           2.64614
         58.6208           77.7506           2.17494
         58.6404           76.9851           3.95934
         58.6600           77.0201           2.51503
         58.6796           77.7079           1.90756
         58.6992           77.6994           4.09871
         58.7188           78.0535           2.62286
         58.7384           78.8323           1.75027
         58.7580           77.7138           3.40103
         58.7777           76.7641           3.50037
         58.7973           77.2086           2.28547
         58.8169           76.7136           3.09260
         58.8365           77.4519           2.69104
         58.8561           77.0346           3.04677
         58.8757           77.3819           2.68090
         58.8953           77.4104           2.53377
         58.9149           78.9442           2.63868
         58.9346           77.7742           4.09223
         58.9542           78.2704           2.44661
         58.9738           77.6807           2.23597
         58.9934           77.3531           3.44760
         59.0130           77.8482           2.49544
         59.0326           77.7318           2.79555
         59.0523           78.5603           3.65987
         59.0719           78.6778           2.75743
         59.0915           78.2974           2.13440
         59.1111           78.2453           2.41172
         59.1307           77.5297           3.05988
         59.1504           79.1853           2.63710
         59.1700           77.5435           2.71249
         59.1896           79.4643           3.13833
         59.2092           79.7884           1.99448
         59.2289           78.7381           2.65488
         59.2485           79.9138           3.22809
         59.2681           80.2208           2.56223
         59.2877           79.6347           1.91225
         59.3073           79.1480           3.03624
         59.3270           79.9497           2.32778
         59.3466           80.8602           2.40260
         59.3662           81.1931           4.04939
         59.3858           80.2441           2.46672
         59.4055           81.4979           1.85601
         59.4251           80.4394           2.89599
         59.4447           81.0872           1.81980
         59.4644           79.5764           2.28201
         59.4840           82.1044           3.62818
         59.5036           80.9258           2.40253
         59.5232           80.7570           2.25911
         59.5429           82.1239           3.32201
         59.5625           82.6917           2.75555
         59.5821           81.9717           2.57729
         59.6018           80.2052           2.54407
         59.6214           81.3829           2.48029
         59.6410           81.4933           2.75393
         59.6607           81.8357           3.16847
         59.6803           82.5354           2.58004
         59.6999           82.3167           2.37152
         59.7196           80.8747           2.67986
         59.7392           83.5404           2.86849
         59.7588           82.2354           3.01626
         59.7785           82.6319           2.22471
         59.7981           83.8378           2.81090
         59.8177           83.3402           1.54987
         59.8374           85.2252           2.80950
         59.8570           85.2784           2.98377
         59.8766           83.5077           2.50099
         59.8963           84.3222           2.42332
         59.9159           83.5322           3.88638
         59.9355           84.6816           1.73995
         59.9552           82.5594           2.11879
         59.9748           83.2863           3.06474
         59.9945           83.2605           2.43404
         60.0141           84.7792           2.24555
         60.0337           83.8373           3.22196
         60.0534           82.9837           2.35694
         60.0730           83.0564           2.01266
         60.0927           83.6246           3.47069
         60.1123           83.7864           2.07599
         60.1319           82.0165           2.29347
         60.1516           83.0134           2.84149
         60.1712           84.3087           3.05700
         60.1909           84.1514           2.17395
         60.2105           84.7012           2.51646
         60.2302           81.7798           2.51761
         60.2498           84.1582           3.02929
         60.2694           83.2895           1.82599
         60.2891           83.9443           2.39663
         60.3087           83.4148           2.26659
         60.3284           83.5023           2.12151
         60.3480           84.6271           3.73717
         60.3677           83.8684           2.23663
         60.3873           86.0358           1.95838
         60.4070           83.6526           3.30255
         60.4266           85.7095           2.38237
         60.4463           85.0358           1.97272
         60.4659           83.9709           3.22091
         60.4856           84.3747           3.10295
         60.5052           85.6172           1.81267
         60.5249           85.4043           3.42804
         60.5445           83.6727           2.93671
         60.5642           85.2306           2.33813
         60.5838           85.0645           3.10409
         60.6035           85.6482           2.83651
         60.6231           84.3625           2.41851
         60.6428           85.4372           2.54853
         60.6624           85.7484           2.63518
         60.6821           85.9582           2.49372
         60.7017           86.6148           2.03466
         60.7214           85.9022           2.86248
         60.7410           89.2757           2.31891
         60.7607           86.2611           2.48885
         60.7803           85.3865           3.24902
         60.8000           86.2785           1.91766
         60.8197           86.5095           2.16465
         60.8393           87.1280           3.62480
         60.8590           85.4157           2.50249
         60.8786           88.1424           1.83873
         60.8983           88.4413           2.72607
         60.9179           87.3577           2.10374
         60.9376           86.7277           2.13557
         60.9573           86.8039           2.27605
         60.9769           86.8744           2.69418
         60.9966           87.6666           2.76659
         61.0162           88.2623           2.47379
         61.0359           86.1350           2.97943
         61.0555           89.5697           3.08002
         61.0752           88.5394           1.94156
         61.0949           88.2521           3.02612
         61.1145           88.6300           2.42207
         61.1342           88.4900           2.75270
         61.1538           89.3232           3.39907
         61.1735           87.3754           2.29742
         61.1932           90.2864           2.25520
         61.2128           90.9478           2.92503
         61.2325           88.2327           2.36896
         61.2522           89.7261           1.74208
         61.2718           89.0311           2.59506
         61.2915           88.3580           3.29992
         61.3111           90.0358           2.65680
         61.3308           89.5816           2.58189
         61.3505           89.6377           3.40853
         61.3701           90.3821           2.31111
         61.3898           90.8075           1.61402
         61.4095           90.2927           2.93579
         61.4291           89.9700           2.94848
         61.4488           89.8546           1.98859
         61.4685           90.1071           2.55407
         61.4881           88.5803           2.29000
         61.5078           90.5848           1.79202
         61.5275           91.1550           2.14100
         61.5471           90.1802           2.71253
         61.5668           89.2351           2.29563
         61.5865           90.3414           1.91661
         61.6061           92.5837           2.09400
         61.6258           91.0595           1.71093
         61.6455           88.6061           1.65880
         61.6652           92.2858           1.77263
         61.6848           93.6847           1.79473
         61.7045           94.4844           1.46539
         61.7242           93.1368           1.68766
         61.7438           94.2174           1.49836
         61.7635           94.5823           1.31077
         61.7832           93.4420           1.23140
         61.8029           93.8337           1.76394
         61.8225           93.1656          0.919433
         61.8422           94.7848           1.58451
         61.8619           97.0443           1.25929
         61.8815           98.2336           1.09091
         61.9012           95.8424           1.43533
         61.9209           98.4206          0.632026
         61.9406           96.0795          0.963233
         61.9602           94.8470          0.825111
         61.9799           97.3326          0.931661
         61.9996           96.6812          0.726098
         62.0193           97.7441          0.754286
         62.0389           97.8531          0.830073
         62.0586           98.8185          0.827333
         62.0783           95.8502          0.652655
         62.0980           98.9938          0.910113
         62.1176           98.8355          0.982867
         62.1373           96.4044          0.371222
         62.1570           96.5645          0.978030
