  Wavelength(um)        Flux(Jy)
       668.89753       20.806534
       668.45041       21.494433
       668.00388       21.747899
       667.55795       21.761639
       667.11261       21.705015
       666.66787       21.678005
       666.22372       21.698856
       665.78017       21.725658
       665.33720       21.698834
       664.89482       21.583438
       664.45303       21.391808
       664.01182       21.177708
       663.57121       21.007578
       663.13117       20.925787
       662.69172       20.933143
       662.25285       20.990235
       661.81457       21.043305
       661.37686       21.057684
       660.93973       21.039257
       660.50318       21.030905
       660.06720       21.085019
       659.63180       21.225255
       659.19697       21.424431
       658.76272       21.609335
       658.32904       21.694948
       657.89593       21.630969
       657.46338       21.434465
       657.03141       21.187764
       656.60001       20.998738
       656.16917       20.942664
       655.73889       21.018568
       655.30918       21.149648
       654.88003       21.236366
       654.45144       21.241518
       654.02342       21.263950
       653.59595       21.554824
       653.16905       22.451795
       652.74269       24.244204
       652.31690       27.020351
       651.89166       30.566625
       651.46698       34.351731
       651.04284       37.658161
       650.61926       39.784992
       650.19623       40.265153
       649.77375       39.014778
       649.35182       36.356645
       648.93044       32.910040
       648.50960       29.391502
       648.08931       26.403270
       647.66956       24.285730
       647.25036       23.078584
       646.83170       22.588349
       646.41358       22.518664
       645.99600       22.601799
       645.57896       22.680151
       645.16246       22.717272
       644.74649       22.752570
       644.33106       22.836734
       643.91617       22.986144
       643.50181       23.162147
       643.08798       23.305884
       642.67468       23.373241
       642.26192       23.359565
       641.84968       23.299381
       641.43798       23.243320
       641.02680       23.228329
       640.61615       23.259495
       640.20602       23.313094
       639.79642       23.356934
       639.38735       23.373881
       638.97879       23.373539
       638.57076       23.385164
       638.16325       23.436845
       637.75626       23.534445
       637.34978       23.653801
       636.94383       23.751588
       636.53839       23.789343
       636.13347       23.757392
       635.72906       23.677276
       635.32516       23.596609
       634.92178       23.563111
       634.51891       23.599565
       634.11656       23.692931
       633.71471       23.803153
       633.31337       23.886639
       632.91254       23.921413
       632.51221       23.920182
       632.11239       23.924450
       631.71308       23.983170
       631.31427       24.127580
       630.91597       24.355433
       630.51816       24.632222
       630.12086       24.907651
       629.72406       25.137801
       629.32776       25.301273
       628.93195       25.402127
       628.53665       25.460380
       628.14184       25.493536
       627.74753       25.508078
       627.35371       25.497657
       626.96038       25.451349
       626.56755       25.365484
       626.17521       25.250975
       625.78336       25.131488
       625.39200       25.033685
       625.00113       24.975524
       624.61075       24.959611
       624.22085       24.975253
       623.83145       25.007478
       623.44252       25.047149
       623.05409       25.095823
       622.66613       25.162498
       622.27866       25.254562
       621.89167       25.368945
       621.50516       25.489564
       621.11914       25.593409
       620.73359       25.661240
       620.34852       25.689078
       619.96392       25.691528
       619.57981       25.695591
       619.19617       25.727782
       618.81300       25.801148
       618.43031       25.908895
       618.04809       26.027803
       617.66634       26.129400
       617.28507       26.193000
       616.90426       26.214161
       616.52393       26.204941
       616.14406       26.186848
       615.76466       26.180900
       615.38573       26.199991
       615.00726       26.246708
       614.62926       26.316281
       614.25172       26.401496
       613.87465       26.495942
       613.49804       26.597915
       613.12189       26.706080
       612.74621       26.818638
       612.37098       26.933768
       611.99621       27.051537
       611.62190       27.175605
       611.24805       27.312471
       610.87465       27.467430
       610.50171       27.638877
       610.12923       27.814351
       609.75720       27.971482
       609.38562       28.084533
       609.01450       28.134051
       608.64383       28.114937
       608.27361       28.038752
       607.90383       27.928947
       607.53451       27.811542
       607.16564       27.705770
       606.79721       27.618753
       606.42923       27.555020
       606.06170       27.516162
       605.69461       27.507843
       605.32797       27.540456
       604.96177       27.623145
       604.59601       27.755158
       604.23070       27.920324
       603.86583       28.089291
       603.50139       28.229807
       603.13740       28.320434
       602.77384       28.360343
       602.41073       28.369324
       602.04805       28.377176
       601.68580       28.407575
       601.32400       28.464987
       600.96262       28.531982
       600.60169       28.578911
       600.24118       28.580665
       599.88111       28.530845
       599.52147       28.453194
       599.16226       28.386894
       598.80348       28.369973
       598.44513       28.421685
       598.08721       28.533903
       597.72971       28.676535
       597.37265       28.813971
       597.01600       28.923592
       596.65979       29.006305
       596.30400       29.083452
       595.94863       29.181971
       595.59369       29.316108
       595.23917       29.475880
       594.88507       29.628828
       594.53140       29.734412
       594.17814       29.763626
       593.82530       29.713714
       593.47288       29.610107
       593.12088       29.494224
       592.76930       29.411292
       592.41813       29.387507
       592.06738       29.424121
       591.71705       29.502296
       591.36712       29.595466
       591.01762       29.682455
       590.66852       29.754861
       590.31984       29.816255
       589.97157       29.875540
       589.62371       29.939563
       589.27626       30.009527
       588.92922       30.082517
       588.58258       30.155883
       588.23636       30.230530
       587.89054       30.310309
       587.54513       30.397739
       587.20012       30.489180
       586.85552       30.572878
       586.51132       30.631382
       586.16753       30.654933
       585.82414       30.642612
       585.48115       30.605896
       585.13857       30.564810
       584.79638       30.539077
       584.45459       30.539491
       584.11321       30.564327
       583.77222       30.602741
       583.43163       30.642982
       583.09143       30.680392
       582.75164       30.720228
       582.41224       30.773437
       582.07323       30.847795
       581.73462       30.939821
       581.39640       31.032637
       581.05858       31.101714
       580.72114       31.125852
       580.38410       31.097483
       580.04745       31.026501
       579.71119       30.938059
       579.37532       30.860115
       579.03984       30.812933
       578.70475       30.803448
       578.37005       30.827103
       578.03573       30.875249
       577.70180       30.942888
       577.36825       31.031595
       577.03509       31.145674
       576.70231       31.284121
       576.36992       31.433923
       576.03791       31.569898
       575.70628       31.662667
       575.37503       31.691511
       575.04417       31.655545
       574.71368       31.576944
       574.38358       31.493695
       574.05385       31.444780
       573.72450       31.454651
       573.39553       31.523338
       573.06694       31.628631
       572.73872       31.736874
       572.41088       31.817838
       572.08341       31.856657
       571.75632       31.857878
       571.42960       31.840908
       571.10326       31.830149
       570.77729       31.844890
       570.45169       31.893087
       570.12646       31.970456
       569.80160       32.063578
       569.47711       32.154544
       569.15299       32.225189
       568.82924       32.260414
       568.50586       32.251150
       568.18285       32.197332
       567.86020       32.110244
       567.53792       32.012649
       567.21600       31.932792
       566.89445       31.898324
       566.57326       31.927004
       566.25244       32.020601
       565.93198       32.165111
       565.61188       32.337494
       565.29215       32.515809
       564.97277       32.687502
       564.65376       32.851432
       564.33511       33.012648
       564.01681       33.173240
       563.69888       33.325202
       563.38130       33.450416
       563.06408       33.528853
       562.74722       33.550990
       562.43071       33.527279
       562.11456       33.488322
       561.79877       33.474286
       561.48333       33.518188
       561.16824       33.627451
       560.85351       33.781694
       560.53913       33.940247
       560.22510       34.059867
       559.91143       34.113567
       559.59810       34.100917
       559.28513       34.044929
       558.97250       33.977817
       558.66023       33.923786
       558.34830       33.888362
       558.03672       33.859773
       557.72549       33.820919
       557.41461       33.764360
       557.10407       33.701109
       556.79388       33.657630
       556.48403       33.662370
       556.17453       33.729347
       555.86537       33.848519
       555.55656       33.989229
       555.24809       34.110155
       554.93996       34.181645
       554.63217       34.197548
       554.32473       34.175521
       554.01762       34.145644
       553.71086       34.133699
       553.40443       34.148380
       553.09835       34.179107
       552.79260       34.204861
       552.48719       34.208226
       552.18211       34.186243
       551.87738       34.151981
       551.57298       34.126535
       551.26891       34.126845
       550.96518       34.156968
       550.66179       34.208005
       550.35873       34.266325
       550.05600       34.324689
       549.75361       34.389168
       549.45154       34.473667
       549.14981       34.592137
       548.84841       34.745961
       548.54734       34.917854
       548.24661       35.076472
       547.94620       35.189840
       547.64612       35.240762
       547.34636       35.236010
       547.04694       35.204473
       546.74784       35.185465
       546.44908       35.213531
       546.15063       35.307459
       545.85252       35.468000
       545.55472       35.683374
       545.25726       35.937208
       544.96011       36.213031
       544.66329       36.492886
       544.36680       36.752892
       544.07062       36.961767
       543.77477       37.083486
       543.47924       37.092157
       543.18403       36.984876
       542.88915       36.787559
       542.59458       36.547950
       542.30033       36.317264
       542.00640       36.129529
       541.71279       35.990651
       541.41950       35.885062
       541.12652       35.798093
       540.83386       35.742065
       540.54152       35.769633
       540.24949       35.962573
       539.95778       36.396461
       539.66638       37.095609
       539.37530       38.000513
       539.08453       38.966976
       538.79408       39.802739
       538.50394       40.329770
       538.21411       40.443847
       537.92459       40.152687
       537.63538       39.569591
       537.34648       38.868961
       537.05790       38.223586
       536.76962       37.750513
       536.48166       37.486482
       536.19400       37.398537
       535.90665       37.418873
       535.61961       37.483516
       535.33287       37.556146
       535.04645       37.629294
       534.76033       37.708489
       534.47451       37.793298
       534.18900       37.868542
       533.90379       37.910570
       533.61889       37.903050
       533.33430       37.850775
       533.05000       37.781661
       532.76601       37.732682
       532.48233       37.732336
       532.19894       37.785769
       531.91586       37.873586
       531.63307       37.964668
       531.35059       38.034756
       531.06841       38.079257
       530.78652       38.112579
       530.50494       38.154914
       530.22365       38.215529
       529.94266       38.283931
       529.66197       38.335340
       529.38158       38.347583
       529.10149       38.318752
       528.82169       38.273691
       528.54218       38.253872
       528.26297       38.295536
       527.98406       38.408988
       527.70544       38.572137
       527.42711       38.742473
       527.14908       38.882689
       526.87134       38.982953
       526.59390       39.066305
       526.31674       39.172671
       526.03988       39.330409
       525.76331       39.533120
       525.48702       39.737519
       525.21103       39.885782
       524.93533       39.939979
       524.65992       39.906695
       524.38480       39.833820
       524.10996       39.777920
       523.83542       39.760887
       523.56116       39.746180
       523.28718       39.658974
       523.01350       39.451362
       522.74010       39.184296
       522.46698       39.078823
       522.19416       39.494170
       521.92161       40.817454
       521.64935       43.296782
       521.37738       46.883085
       521.10568       51.155962
       520.83427       55.382598
       520.56315       58.706018
       520.29230       60.402191
       520.02174       60.111192
       519.75146       57.952785
       519.48146       54.480945
       519.21174       50.495969
       518.94230       46.788835
       518.67314       43.915717
       518.40426       42.081925
       518.13565       41.164034
       517.86733       40.840721
       517.59928       40.762894
       517.33151       40.688187
       517.06402       40.535210
       516.79680       40.349270
       516.52986       40.221413
       516.26319       40.209896
       515.99680       40.303775
       515.73069       40.438680
       515.46485       40.544899
       515.19928       40.593262
       514.93399       40.610584
       514.66897       40.657683
       514.40422       40.785893
       514.13975       40.999638
       513.87554       41.247615
       513.61161       41.447430
       513.34795       41.529149
       513.08456       41.473015
       512.82144       41.320706
       512.55859       41.154568
       512.29601       41.056619
       512.03370       41.074793
       511.77165       41.202366
       511.50988       41.390329
       511.24837       41.578256
       510.98713       41.725961
       510.72615       41.829573
       510.46545       41.915498
       510.20500       42.018481
       509.94483       42.157932
       509.68492       42.325979
       509.42527       42.492607
       509.16589       42.622958
       508.90677       42.695547
       508.64792       42.710949
       508.38933       42.687316
       508.13100       42.647304
       507.87293       42.605632
       507.61513       42.564775
       507.35759       42.520152
       507.10031       42.474304
       506.84329       42.440745
       506.58653       42.442709
       506.33003       42.502454
       506.07379       42.627752
       505.81781       42.804249
       505.56209       42.998941
       505.30662       43.173511
       505.05142       43.300436
       504.79647       43.373120
       504.54178       43.404814
       504.28735       43.417621
       504.03317       43.428550
       503.77925       43.440991
       503.52558       43.446377
       503.27217       43.434422
       503.01902       43.405016
       502.76612       43.373646
       502.51347       43.366078
       502.26108       43.407384
       502.00894       43.505998
       501.75705       43.647723
       501.50542       43.801007
       501.25404       43.931264
       501.00291       44.016782
       500.75203       44.057729
       500.50141       44.073664
       500.25103       44.091402
       500.00090       44.130279
       499.75103       44.192993
       499.50140       44.266622
       499.25203       44.332460
       499.00290       44.378325
       498.75402       44.405979
       498.50539       44.429491
       498.25700       44.465933
       498.00887       44.524173
       497.76098       44.598438
       497.51334       44.671796
       497.26594       44.724435
       497.01879       44.744797
       496.77189       44.735831
       496.52523       44.713211
       496.27881       44.697115
       496.03264       44.702653
       495.78672       44.734404
       495.54103       44.787631
       495.29560       44.854490
       495.05040       44.930598
       494.80545       45.017467
       494.56074       45.119349
       494.31627       45.236915
       494.07204       45.362480
       493.82805       45.480621
       493.58431       45.574563
       493.34080       45.634892
       493.09754       45.665322
       492.85451       45.681005
       492.61173       45.701417
       492.36918       45.740364
       492.12687       45.799738
       491.88480       45.870821
       491.64297       45.942336
       491.40138       46.010168
       491.16002       46.082292
       490.91890       46.175050
       490.67802       46.302192
       490.43738       46.462894
       490.19696       46.636396
       489.95679       46.787711
       489.71685       46.882756
       489.47715       46.905505
       489.23768       46.867837
       488.99844       46.806015
       488.75944       46.764721
       488.52067       46.776449
       488.28213       46.844613
       488.04383       46.943873
       487.80576       47.033177
       487.56792       47.077084
       487.33032       47.064240
       487.09294       47.013410
       486.85580       46.964089
       486.61888       46.956755
       486.38220       47.013052
       486.14575       47.125984
       485.90953       47.264718
       485.67353       47.390931
       485.43777       47.477853
       485.20224       47.522241
       484.96693       47.543682
       484.73185       47.572450
       484.49700       47.632863
       484.26238       47.731051
       484.02798       47.853185
       483.79381       47.970301
       483.55987       48.054486
       483.32615       48.089836
       483.09266       48.077115
       482.85940       48.030896
       482.62636       47.972051
       482.39354       47.920291
       482.16095       47.890234
       481.92858       47.891479
       481.69644       47.930487
       481.46452       48.011348
       481.23282       48.134051
       481.00135       48.291309
       480.77010       48.466766
       480.53907       48.637043
       480.30827       48.777940
       480.07768       48.872403
       479.84732       48.916678
       479.61717       48.921827
       479.38725       48.905340
       479.15755       48.886733
       478.92807       48.879708
       478.69881       48.888975
       478.46976       48.912205
       478.24094       48.944858
       478.01234       48.984486
       477.78395       49.031946
       477.55578       49.089226
       477.32783       49.155951
       477.10010       49.227431
       476.87258       49.296006
       476.64528       49.355030
       476.41820       49.402926
